File: Cronstedtite/Crons_3/powderpattern_table_3.csv
H	K	L	2THETA	D-VALUE	MULT	INTENSITY
0	0	2	12.51	7.0740	2	1000.0
0	1	0	18.65	4.7571	2	31.6
0	1	-1	19.69	4.5090	2	31.2
0	1	1	19.69	4.5090	2	31.2
1	0	-2	22.52	3.9475	2	19.0
1	0	2	22.52	3.9475	2	19.0
1	-1	-3	26.62	3.3491	2	12.2
1	0	3	26.62	3.3491	2	12.2
0	1	-4	31.52	2.8384	2	6.8
0	1	4	31.52	2.8384	2	6.8
1	-2	0	32.60	2.7465	2	0.1
2	-1	1	33.23	2.6962	2	72.9
1	1	-1	33.23	2.6962	2	72.9
2	-1	-2	35.05	2.5603	2	100.8
2	-1	2	35.05	2.5603	2	100.8
0	1	-5	36.96	2.4319	2	4.2
0	1	5	36.96	2.4319	2	4.2
2	0	0	37.82	2.3785	2	0.3
1	-2	-3	37.91	2.3734	2	61.9
1	1	3	37.91	2.3734	2	61.9
2	-2	1	38.37	2.3456	2	0.2
0	2	-1	38.37	2.3456	2	0.2
2	-2	-2	39.99	2.2545	2	0.6
2	0	-2	39.99	2.2545	2	0.6
2	-1	-4	41.63	2.1693	2	21.7
1	-2	-4	41.63	2.1693	2	21.7
2	0	-3	42.57	2.1237	2	1.1
2	-2	-3	42.57	2.1237	2	1.1
0	1	-6	42.80	2.1127	2	2.2
1	-1	-6	42.80	2.1127	2	2.2
2	0	-4	45.98	1.9738	2	1.3
0	2	-4	45.98	1.9738	2	1.3
1	-2	5	46.05	1.9708	2	68.3
2	-1	5	46.05	1.9708	2	68.3
1	0	-7	48.97	1.8602	2	1.2
0	1	7	48.97	1.8602	2	1.2
2	-2	5	50.10	1.8207	2	1.3
2	0	-5	50.10	1.8207	2	1.3
3	-2	0	50.78	1.7980	2	3.4
3	-1	0	50.78	1.7980	2	0.3
2	-1	-6	51.05	1.7891	2	16.5
2	-1	6	51.05	1.7891	2	16.5
3	-1	-1	51.21	1.7837	2	2.9
1	-3	-1	51.21	1.7837	2	0.8
2	-3	1	51.21	1.7837	2	2.9
2	1	1	51.21	1.7837	2	0.8
0	0	8	51.69	1.7685	2	14.3
3	-2	-2	52.51	1.7426	2	2.3
3	-1	-2	52.51	1.7426	2	0.6
2	1	-2	52.51	1.7426	2	2.3
2	1	2	52.51	1.7426	2	2.3
2	-3	3	54.63	1.6800	2	2.0
2	-3	-3	54.63	1.6800	2	2.0
1	2	-3	54.63	1.6800	2	2.0
2	1	3	54.63	1.6800	2	0.8
2	0	-6	54.82	1.6746	2	0.9
2	0	6	54.82	1.6746	2	0.9
1	0	8	55.43	1.6577	2	0.8
1	-1	-8	55.43	1.6577	2	0.8
2	-1	-7	56.53	1.6279	2	29.7
1	1	7	56.53	1.6279	2	29.7
3	-2	-4	57.50	1.6028	2	1.7
1	-3	4	57.50	1.6028	2	1.7
1	-3	-4	57.50	1.6028	2	1.7
1	2	4	57.50	1.6028	2	0.6
3	0	0	58.18	1.5857	2	100.2
0	3	-1	58.58	1.5758	2	0.0
0	3	1	58.58	1.5758	2	0.0
3	0	2	59.77	1.5473	2	21.8
0	3	2	59.77	1.5473	2	21.8
2	-2	-7	60.07	1.5402	2	1.2
2	0	7	60.07	1.5402	2	1.2
3	-2	-5	61.06	1.5176	2	0.5
2	1	-5	61.06	1.5176	2	0.5
3	-1	5	61.06	1.5176	2	1.1
1	2	5	61.06	1.5176	2	1.1
3	-3	-3	61.72	1.5030	2	0.0
3	0	3	61.72	1.5030	2	0.0
0	1	9	62.19	1.4926	2	0.5
1	-1	-9	62.19	1.4926	2	0.5
1	-2	8	62.46	1.4869	2	24.6
2	-1	8	62.46	1.4869	2	24.6
0	3	-4	64.39	1.4469	2	23.7
3	0	4	64.39	1.4469	2	23.7
3	-1	-6	65.26	1.4298	2	0.5
2	1	-6	65.26	1.4298	2	0.7
1	2	6	65.26	1.4298	2	0.5
2	1	6	65.26	1.4298	2	0.7
2	-2	-8	65.80	1.4192	2	0.9
2	0	8	65.80	1.4192	2	0.9
0	3	-5	67.74	1.3833	2	0.0
0	3	5	67.74	1.3833	2	0.0
2	-4	0	68.30	1.3733	2	0.4
4	-2	1	68.67	1.3668	2	7.5
2	2	-1	68.67	1.3668	2	7.5
1	-2	9	68.81	1.3643	2	17.5
2	-1	9	68.81	1.3643	2	17.5
1	-1	10	69.29	1.3561	2	0.4
4	-2	2	69.76	1.3481	2	16.2
2	2	-2	69.76	1.3481	2	16.2
2	1	-7	70.04	1.3434	2	0.4
3	-2	7	70.04	1.3434	2	0.4
2	-3	-7	70.04	1.3434	2	0.5
1	-3	-7	70.04	1.3434	2	0.4
3	-4	0	71.51	1.3194	2	0.0
1	3	0	71.51	1.3194	2	0.0
2	-4	-3	71.56	1.3185	2	9.1
2	2	3	71.56	1.3185	2	9.1
3	0	-6	71.73	1.3158	2	9.1
3	0	6	71.73	1.3158	2	9.1
3	-4	1	71.86	1.3137	2	1.4
1	3	1	71.86	1.3137	2	1.4
3	1	1	71.86	1.3137	2	0.4
3	1	-1	71.86	1.3137	2	0.4
0	2	-9	72.00	1.3115	2	0.9
2	0	9	72.00	1.3115	2	0.9
3	-4	2	72.94	1.2970	2	0.1
1	-4	2	72.94	1.2970	2	1.5
3	1	-2	72.94	1.2970	2	1.5
1	-4	-2	72.94	1.2970	2	1.5
4	-2	-4	74.05	1.2802	2	1.6
4	-2	4	74.05	1.2802	2	1.6
3	-4	-3	74.71	1.2706	2	1.0
4	-1	3	74.71	1.2706	2	1.0
3	1	-3	74.71	1.2706	2	0.3
1	3	3	74.71	1.2706	2	1.0
3	-2	-8	75.39	1.2608	2	0.3
3	-2	8	75.39	1.2608	2	0.3
2	-3	8	75.39	1.2608	2	0.5
3	-1	8	75.39	1.2608	2	0.5
1	1	10	75.60	1.2577	2	1.9
3	-3	7	76.33	1.2476	2	0.0
3	0	7	76.33	1.2476	2	0.0
0	1	11	76.76	1.2416	2	0.2
3	-4	4	77.16	1.2362	2	0.2
4	-1	-4	77.16	1.2362	2	0.2
3	1	4	77.16	1.2362	2	1.2
1	-4	-4	77.16	1.2362	2	1.2
2	-4	-5	77.22	1.2354	2	10.6
2	2	-5	77.22	1.2354	2	10.6
2	0	10	78.69	1.2160	2	0.5
4	-3	5	80.28	1.1958	2	0.3
1	-4	5	80.28	1.1958	2	0.3
3	1	-5	80.28	1.1958	2	0.3
1	-4	-5	80.28	1.1958	2	0.3
0	4	0	80.81	1.1893	2	0.2
2	-4	-6	81.03	1.1867	2	5.8
2	2	-6	81.03	1.1867	2	5.8
4	-4	1	81.16	1.1851	2	0.1
4	0	-1	81.16	1.1851	2	0.1
3	-2	-9	81.29	1.1835	2	0.3
2	-3	9	81.29	1.1835	2	0.2
2	1	-9	81.29	1.1835	2	0.3
2	1	9	81.29	1.1835	2	0.3
3	-3	8	81.53	1.1806	2	1.5
0	3	8	81.53	1.1806	2	1.5
4	-4	-2	82.19	1.1728	2	0.2
0	4	2	82.19	1.1728	2	0.2
1	-2	11	82.88	1.1648	2	5.3
4	0	3	83.90	1.1532	2	0.1
4	-4	-3	83.90	1.1532	2	0.1
4	-3	-6	84.06	1.1514	2	0.6
4	-3	6	84.06	1.1514	2	0.6
3	1	-6	84.06	1.1514	2	0.6
4	-1	6	84.06	1.1514	2	0.3
1	-1	12	84.70	1.1444	2	0.1
2	-4	7	85.48	1.1359	2	8.4
2	-4	-7	85.48	1.1359	2	8.4
2	-2	11	85.90	1.1314	2	0.7
4	-4	-4	86.29	1.1273	2	0.2
0	4	-4	86.29	1.1273	2	0.2
3	-3	-9	87.34	1.1164	2	0.0
0	3	-9	87.34	1.1164	2	0.0
2	-3	10	87.79	1.1119	2	0.3
1	2	10	87.79	1.1119	2	0.3
3	-4	7	88.50	1.1048	2	0.3
1	-4	7	88.50	1.1048	2	0.2
3	-4	-7	88.50	1.1048	2	0.3
3	1	7	88.50	1.1048	2	0.2
0	4	-5	89.36	1.0964	2	0.2
4	-4	5	89.36	1.0964	2	0.2
2	-5	0	89.88	1.0913	2	0.2
5	-3	0	89.88	1.0913	2	0.2
3	-5	1	90.22	1.0881	2	0.1
5	-2	1	90.22	1.0881	2	0.1
5	-3	1	90.22	1.0881	2	0.1
3	2	-1	90.22	1.0881	2	0.1
4	-2	-8	90.59	1.0846	2	7.0
4	-2	8	90.59	1.0846	2	7.0
1	-2	12	90.72	1.0834	2	4.4
5	-3	-2	91.24	1.0786	2	0.3
2	-5	2	91.24	1.0786	2	0.3
3	-5	-2	91.24	1.0786	2	0.1
3	2	-2	91.24	1.0786	2	0.3
5	-3	3	92.94	1.0632	2	0.1
3	2	-3	92.94	1.0632	2	0.1
2	-5	3	92.94	1.0632	2	0.1
2	-5	-3	92.94	1.0632	2	0.1
0	4	-6	93.10	1.0619	2	0.2
4	-4	6	93.10	1.0619	2	0.2
0	1	13	93.21	1.0609	2	0.1
3	-4	8	93.60	1.0575	2	0.3
4	-1	-8	93.60	1.0575	2	0.3
3	-4	-8	93.60	1.0575	2	0.3
3	1	8	93.60	1.0575	2	0.3
2	-2	12	93.74	1.0563	2	0.4
3	-3	10	93.81	1.0557	2	12.7
2	-3	11	94.94	1.0461	2	0.1
2	1	11	94.94	1.0461	2	0.2
3	-5	4	95.33	1.0428	2	0.2
5	-2	4	95.33	1.0428	2	0.2
5	-3	4	95.33	1.0428	2	0.2
3	2	-4	95.33	1.0428	2	0.2
5	-4	0	95.91	1.0381	2	0.0
5	-1	0	95.91	1.0381	2	0.0
4	-5	1	96.25	1.0353	2	3.0
5	-4	-1	96.25	1.0353	2	3.0
5	-1	-1	96.25	1.0353	2	3.0
1	4	-1	96.25	1.0353	2	3.0
2	-4	9	96.39	1.0342	2	6.3
4	-2	9	96.39	1.0342	2	6.3
4	-5	-2	97.28	1.0271	2	5.2
5	-4	2	97.28	1.0271	2	5.5
4	1	-2	97.28	1.0271	2	5.5
1	-5	-2	97.28	1.0271	2	5.5
4	0	-7	97.55	1.0250	2	0.2
4	-4	-7	97.55	1.0250	2	0.2
5	-3	5	98.42	1.0182	2	0.1
5	-3	-5	98.42	1.0182	2	0.1
5	-2	-5	98.42	1.0182	2	0.1
3	-5	-5	98.42	1.0182	2	0.1
5	-4	-3	99.00	1.0138	2	4.7
4	-5	-3	99.00	1.0138	2	4.8
5	-1	-3	99.00	1.0138	2	4.8
1	4	-3	99.00	1.0138	2	4.8
1	1	13	99.27	1.0118	2	3.9
1	-4	9	99.43	1.0106	2	0.2
4	-3	-9	99.43	1.0106	2	0.2
3	1	-9	99.43	1.0106	2	0.2
1	3	9	99.43	1.0106	2	0.2
0	0	14	99.43	1.0106	2	12.4